wavelength:cm-1,532.143005
X	Y
60.775025	587.000000
61.224870	590.000000
61.674680	609.000000
62.124455	585.000000
62.574194	582.000000
63.023898	599.000000
63.473566	591.000000
63.923199	591.000000
64.372797	605.000000
64.822359	587.000000
65.271886	581.000000
65.721378	598.000000
66.170834	613.000000
66.620255	597.000000
67.069641	603.000000
67.518991	617.000000
67.968306	593.000000
68.417586	618.000000
68.866830	610.000000
69.316039	597.000000
69.765212	634.000000
70.214350	618.000000
70.663453	644.000000
71.112521	624.000000
71.561553	642.000000
72.010550	640.000000
72.459511	659.000000
72.908437	671.000000
73.357328	657.000000
73.806184	672.000000
74.255004	713.000000
74.703789	716.000000
75.152539	757.000000
75.601253	742.000000
76.049932	735.000000
76.498576	777.000000
76.947184	805.000000
77.395757	811.000000
77.844295	822.000000
78.292798	802.000000
78.741265	780.000000
79.189697	782.000000
79.638094	777.000000
80.086455	755.000000
80.534781	755.000000
80.983072	761.000000
81.431328	735.000000
81.879548	709.000000
82.327733	692.000000
82.775883	682.000000
83.223997	651.000000
83.672077	664.000000
84.120121	634.000000
84.568129	637.000000
85.016103	630.000000
85.464041	629.000000
85.911944	624.000000
86.359812	623.000000
86.807644	598.000000
87.255442	592.000000
87.703204	585.000000
88.150931	595.000000
88.598622	592.000000
89.046278	586.000000
89.493900	600.000000
89.941485	605.000000
90.389036	585.000000
90.836552	597.000000
91.284032	574.000000
91.731477	580.000000
92.178887	594.000000
92.626261	586.000000
93.073600	591.000000
93.520905	598.000000
93.968174	587.000000
94.415407	592.000000
94.862606	589.000000
95.309769	599.000000
95.756897	582.000000
96.203990	601.000000
96.651048	588.000000
97.098071	598.000000
97.545058	594.000000
97.992010	588.000000
98.438928	584.000000
98.885809	598.000000
99.332656	584.000000
99.779468	577.000000
100.226244	593.000000
100.672985	590.000000
101.119691	580.000000
101.566362	586.000000
102.012998	583.000000
102.459598	577.000000
102.906164	575.000000
103.352694	593.000000
103.799189	592.000000
104.245649	595.000000
104.692074	601.000000
105.138464	584.000000
105.584818	595.000000
106.031138	586.000000
106.477422	628.000000
106.923671	588.000000
107.369885	611.000000
107.816064	591.000000
108.262208	606.000000
108.708316	615.000000
109.154390	618.000000
109.600428	604.000000
110.046431	613.000000
110.492400	602.000000
110.938333	632.000000
111.384231	593.000000
111.830093	595.000000
112.275921	624.000000
112.721714	620.000000
113.167471	622.000000
113.613194	637.000000
114.058881	629.000000
114.504534	626.000000
114.950151	624.000000
115.395733	613.000000
115.841280	615.000000
116.286792	632.000000
116.732269	623.000000
117.177710	635.000000
117.623117	630.000000
118.068489	622.000000
118.513825	651.000000
118.959127	632.000000
119.404393	619.000000
119.849625	642.000000
120.294821	650.000000
120.739982	649.000000
121.185109	653.000000
121.630200	666.000000
122.075256	657.000000
122.520277	638.000000
122.965263	667.000000
123.410214	679.000000
123.855130	666.000000
124.300011	680.000000
124.744857	678.000000
125.189668	693.000000
125.634444	701.000000
126.079184	706.000000
126.523890	688.000000
126.968561	682.000000
127.413197	705.000000
127.857798	694.000000
128.302363	669.000000
128.746894	676.000000
129.191390	662.000000
129.635850	675.000000
130.080276	646.000000
130.524667	690.000000
130.969023	654.000000
131.413343	654.000000
131.857629	660.000000
132.301880	645.000000
132.746095	630.000000
133.190276	658.000000
133.634422	632.000000
134.078533	646.000000
134.522609	602.000000
134.966649	649.000000
135.410655	613.000000
135.854626	623.000000
136.298562	632.000000
136.742463	622.000000
137.186329	606.000000
137.630160	614.000000
138.073956	596.000000
138.517717	595.000000
138.961443	604.000000
139.405135	612.000000
139.848791	612.000000
140.292412	626.000000
140.735999	601.000000
141.179550	607.000000
141.623067	582.000000
142.066548	596.000000
142.509995	602.000000
142.953406	604.000000
143.396783	595.000000
143.840125	598.000000
144.283432	603.000000
144.726704	584.000000
145.169941	608.000000
145.613143	586.000000
146.056310	570.000000
146.499443	591.000000
146.942540	600.000000
147.385603	564.000000
147.828630	584.000000
148.271623	576.000000
148.714581	592.000000
149.157504	591.000000
149.600392	566.000000
150.043245	583.000000
150.486063	567.000000
150.928847	587.000000
151.371595	591.000000
151.814309	598.000000
152.256987	584.000000
152.699631	576.000000
153.142240	581.000000
153.584814	586.000000
154.027353	601.000000
154.469858	603.000000
154.912327	579.000000
155.354762	570.000000
155.797162	561.000000
156.239527	569.000000
156.681857	584.000000
157.124152	584.000000
157.566412	594.000000
158.008638	575.000000
158.450828	585.000000
158.892984	589.000000
159.335105	591.000000
159.777191	571.000000
160.219242	596.000000
160.661259	575.000000
161.103241	587.000000
161.545187	575.000000
161.987099	584.000000
162.428977	577.000000
162.870819	586.000000
163.312626	575.000000
163.754399	576.000000
164.196137	583.000000
164.637840	584.000000
165.079508	578.000000
165.521142	592.000000
165.962740	582.000000
166.404304	582.000000
166.845833	587.000000
167.287328	572.000000
167.728787	584.000000
168.170212	574.000000
168.611602	581.000000
169.052957	571.000000
169.494277	580.000000
169.935563	596.000000
170.376813	589.000000
170.818029	571.000000
171.259211	583.000000
171.700357	566.000000
172.141469	581.000000
172.582546	577.000000
173.023588	600.000000
173.464595	575.000000
173.905568	566.000000
174.346506	608.000000
174.787409	583.000000
175.228277	590.000000
175.669111	580.000000
176.109910	581.000000
176.550674	573.000000
176.991403	585.000000
177.432098	556.000000
177.872758	590.000000
178.313383	590.000000
178.753973	577.000000
179.194529	578.000000
179.635050	586.000000
180.075536	583.000000
180.515988	580.000000
180.956405	589.000000
181.396787	600.000000
181.837134	567.000000
182.277447	577.000000
182.717725	587.000000
183.157968	585.000000
183.598177	585.000000
184.038350	570.000000
184.478490	591.000000
184.918594	581.000000
185.358664	563.000000
185.798699	584.000000
186.238699	591.000000
186.678665	576.000000
187.118596	572.000000
187.558492	585.000000
187.998354	569.000000
188.438181	589.000000
188.877973	577.000000
189.317731	585.000000
189.757454	575.000000
190.197142	573.000000
190.636796	580.000000
191.076414	597.000000
191.515999	577.000000
191.955548	595.000000
192.395063	589.000000
192.834544	585.000000
193.273989	591.000000
193.713400	576.000000
194.152777	587.000000
194.592118	595.000000
195.031425	584.000000
195.470698	592.000000
195.909936	601.000000
196.349139	577.000000
196.788307	569.000000
197.227441	570.000000
197.666541	584.000000
198.105605	593.000000
198.544635	582.000000
198.983631	598.000000
199.422591	578.000000
199.861518	590.000000
200.300409	583.000000
200.739266	585.000000
201.178089	589.000000
201.616876	579.000000
202.055629	572.000000
202.494348	596.000000
202.933032	591.000000
203.371681	561.000000
203.810296	585.000000
204.248876	600.000000
204.687422	587.000000
205.125933	597.000000
205.564409	577.000000
206.002851	571.000000
206.441258	587.000000
206.879631	594.000000
207.317969	590.000000
207.756273	587.000000
208.194542	596.000000
208.632776	603.000000
209.070976	601.000000
209.509141	598.000000
209.947272	586.000000
210.385368	602.000000
210.823430	588.000000
211.261457	573.000000
211.699449	601.000000
212.137407	587.000000
212.575331	608.000000
213.013220	589.000000
213.451074	602.000000
213.888894	610.000000
214.326679	607.000000
214.764430	617.000000
215.202146	596.000000
215.639828	611.000000
216.077475	628.000000
216.515087	631.000000
216.952666	628.000000
217.390209	630.000000
217.827718	639.000000
218.265193	640.000000
218.702633	637.000000
219.140038	630.000000
219.577410	638.000000
220.014746	614.000000
220.452048	628.000000
220.889316	665.000000
221.326549	654.000000
221.763747	667.000000
222.200911	652.000000
222.638041	651.000000
223.075136	638.000000
223.512197	663.000000
223.949223	664.000000
224.386215	653.000000
224.823172	657.000000
225.260094	642.000000
225.696983	618.000000
226.133836	647.000000
226.570656	639.000000
227.007441	641.000000
227.444191	639.000000
227.880907	621.000000
228.317588	618.000000
228.754235	619.000000
229.190848	608.000000
229.627426	632.000000
230.063970	612.000000
230.500479	624.000000
230.936954	620.000000
231.373394	596.000000
231.809800	598.000000
232.246172	595.000000
232.682509	604.000000
233.118811	599.000000
233.555080	597.000000
233.991313	600.000000
234.427513	613.000000
234.863678	603.000000
235.299808	608.000000
235.735904	587.000000
236.171966	618.000000
236.607993	594.000000
237.043986	626.000000
237.479944	628.000000
237.915869	622.000000
238.351758	629.000000
238.787613	611.000000
239.223434	628.000000
239.659221	633.000000
240.094973	637.000000
240.530691	655.000000
240.966374	678.000000
241.402023	677.000000
241.837637	715.000000
242.273218	692.000000
242.708763	726.000000
243.144275	755.000000
243.579752	780.000000
244.015195	787.000000
244.450603	814.000000
244.885977	870.000000
245.321316	881.000000
245.756622	916.000000
246.191893	922.000000
246.627129	964.000000
247.062331	999.000000
247.497499	979.000000
247.932633	1009.000000
248.367732	994.000000
248.802796	1010.000000
249.237827	982.000000
249.672823	997.000000
250.107785	975.000000
250.542712	955.000000
250.977605	917.000000
251.412464	947.000000
251.847289	885.000000
252.282079	866.000000
252.716835	850.000000
253.151556	813.000000
253.586243	809.000000
254.020896	760.000000
254.455515	777.000000
254.890099	772.000000
255.324649	756.000000
255.759165	703.000000
256.193646	732.000000
256.628093	707.000000
257.062506	707.000000
257.496884	685.000000
257.931229	689.000000
258.365538	672.000000
258.799814	676.000000
259.234055	674.000000
259.668262	665.000000
260.102435	655.000000
260.536574	664.000000
260.970678	685.000000
261.404748	688.000000
261.838783	697.000000
262.272785	688.000000
262.706752	687.000000
263.140685	677.000000
263.574584	697.000000
264.008448	693.000000
264.442278	689.000000
264.876074	705.000000
265.309835	739.000000
265.743563	724.000000
266.177256	707.000000
266.610915	734.000000
267.044539	751.000000
267.478130	741.000000
267.911686	770.000000
268.345208	762.000000
268.778696	829.000000
269.212149	788.000000
269.645568	817.000000
270.078953	839.000000
270.512304	835.000000
270.945621	845.000000
271.378903	872.000000
271.812151	889.000000
272.245365	873.000000
272.678545	878.000000
273.111690	864.000000
273.544802	885.000000
273.977879	863.000000
274.410922	853.000000
274.843931	858.000000
275.276905	839.000000
275.709845	822.000000
276.142752	800.000000
276.575624	800.000000
277.008461	820.000000
277.441265	773.000000
277.874034	775.000000
278.306770	730.000000
278.739471	722.000000
279.172138	690.000000
279.604770	683.000000
280.037369	710.000000
280.469933	674.000000
280.902464	675.000000
281.334960	669.000000
281.767422	693.000000
282.199849	661.000000
282.632243	664.000000
283.064602	657.000000
283.496928	629.000000
283.929219	667.000000
284.361476	652.000000
284.793699	637.000000
285.225888	633.000000
285.658042	649.000000
286.090163	625.000000
286.522249	613.000000
286.954301	632.000000
287.386319	623.000000
287.818303	616.000000
288.250253	616.000000
288.682169	618.000000
289.114050	608.000000
289.545898	615.000000
289.977711	606.000000
290.409491	613.000000
290.841236	617.000000
291.272947	607.000000
291.704624	603.000000
292.136267	616.000000
292.567875	624.000000
292.999450	622.000000
293.430991	589.000000
293.862497	587.000000
294.293969	617.000000
294.725408	603.000000
295.156812	621.000000
295.588182	597.000000
296.019518	598.000000
296.450820	599.000000
296.882088	596.000000
297.313322	599.000000
297.744522	610.000000
298.175687	591.000000
298.606819	578.000000
299.037917	593.000000
299.468980	608.000000
299.900010	599.000000
300.331005	583.000000
300.761966	602.000000
301.192894	606.000000
301.623787	590.000000
302.054646	591.000000
302.485471	589.000000
302.916263	587.000000
303.347020	615.000000
303.777743	583.000000
304.208432	592.000000
304.639087	592.000000
305.069708	614.000000
305.500295	589.000000
305.930848	588.000000
306.361367	583.000000
306.791852	592.000000
307.222302	593.000000
307.652719	572.000000
308.083102	600.000000
308.513451	596.000000
308.943766	599.000000
309.374047	588.000000
309.804294	586.000000
310.234506	571.000000
310.664685	582.000000
311.094830	603.000000
311.524941	605.000000
311.955018	583.000000
312.385061	568.000000
312.815070	597.000000
313.245045	578.000000
313.674986	605.000000
314.104892	612.000000
314.534765	579.000000
314.964604	578.000000
315.394410	587.000000
315.824181	589.000000
316.253918	594.000000
316.683621	590.000000
317.113290	583.000000
317.542925	586.000000
317.972527	577.000000
318.402094	579.000000
318.831627	574.000000
319.261127	582.000000
319.690592	563.000000
320.120024	581.000000
320.549421	574.000000
320.978785	569.000000
321.408115	595.000000
321.837411	584.000000
322.266672	583.000000
322.695900	595.000000
323.125094	578.000000
323.554254	588.000000
323.983381	577.000000
324.412473	582.000000
324.841531	589.000000
325.270556	583.000000
325.699546	588.000000
326.128503	577.000000
326.557425	579.000000
326.986314	578.000000
327.415169	571.000000
327.843990	585.000000
328.272777	575.000000
328.701530	593.000000
329.130249	604.000000
329.558935	573.000000
329.987586	585.000000
330.416204	572.000000
330.844788	578.000000
331.273337	576.000000
331.701853	585.000000
332.130336	586.000000
332.558784	574.000000
332.987198	580.000000
333.415579	584.000000
333.843925	584.000000
334.272238	584.000000
334.700517	582.000000
335.128762	599.000000
335.556973	567.000000
335.985150	578.000000
336.413294	584.000000
336.841404	560.000000
337.269479	577.000000
337.697521	584.000000
338.125529	584.000000
338.553504	597.000000
338.981444	576.000000
339.409351	578.000000
339.837223	577.000000
340.265062	569.000000
340.692867	586.000000
341.120638	577.000000
341.548376	598.000000
341.976080	584.000000
342.403749	580.000000
342.831385	569.000000
343.258987	578.000000
343.686556	582.000000
344.114090	580.000000
344.541591	578.000000
344.969058	585.000000
345.396491	586.000000
345.823890	570.000000
346.251256	580.000000
346.678588	586.000000
347.105886	580.000000
347.533150	594.000000
347.960380	590.000000
348.387577	571.000000
348.814740	584.000000
349.241869	592.000000
349.668964	596.000000
350.096025	587.000000
350.523053	585.000000
350.950047	572.000000
351.377007	596.000000
351.803933	574.000000
352.230826	597.000000
352.657685	584.000000
353.084510	597.000000
353.511301	592.000000
353.938059	589.000000
354.364783	597.000000
354.791473	595.000000
355.218129	602.000000
355.644752	591.000000
356.071341	587.000000
356.497896	587.000000
356.924417	598.000000
357.350905	601.000000
357.777359	585.000000
358.203779	594.000000
358.630165	571.000000
359.056518	584.000000
359.482837	581.000000
359.909122	586.000000
360.335374	601.000000
360.761592	598.000000
361.187776	586.000000
361.613926	600.000000
362.040043	579.000000
362.466126	596.000000
362.892175	595.000000
363.318191	599.000000
363.744173	616.000000
364.170121	592.000000
364.596035	606.000000
365.021916	612.000000
365.447763	614.000000
365.873577	616.000000
366.299357	597.000000
366.725103	605.000000
367.150815	627.000000
367.576494	622.000000
368.002139	625.000000
368.427750	631.000000
368.853328	631.000000
369.278872	651.000000
369.704382	679.000000
370.129859	654.000000
370.555302	662.000000
370.980711	681.000000
371.406087	676.000000
371.831429	700.000000
372.256737	703.000000
372.682012	723.000000
373.107253	766.000000
373.532461	767.000000
373.957635	792.000000
374.382775	840.000000
374.807881	884.000000
375.232954	946.000000
375.657994	954.000000
376.082999	975.000000
376.507971	1014.000000
376.932910	1019.000000
377.357814	998.000000
377.782686	1049.000000
378.207523	1018.000000
378.632327	1007.000000
379.057097	1043.000000
379.481834	997.000000
379.906537	993.000000
380.331207	912.000000
380.755843	942.000000
381.180445	913.000000
381.605014	872.000000
382.029549	832.000000
382.454050	826.000000
382.878518	774.000000
383.302952	742.000000
383.727353	731.000000
384.151720	732.000000
384.576054	663.000000
385.000354	680.000000
385.424620	657.000000
385.848853	659.000000
386.273052	648.000000
386.697218	636.000000
387.121350	626.000000
387.545448	629.000000
387.969513	599.000000
388.393545	603.000000
388.817543	614.000000
389.241507	605.000000
389.665438	603.000000
390.089335	596.000000
390.513199	596.000000
390.937029	594.000000
391.360825	608.000000
391.784588	595.000000
392.208318	594.000000
392.632014	578.000000
393.055676	596.000000
393.479305	581.000000
393.902900	597.000000
394.326462	580.000000
394.749990	585.000000
395.173485	591.000000
395.596946	576.000000
396.020374	586.000000
396.443768	561.000000
396.867129	581.000000
397.290456	567.000000
397.713750	592.000000
398.137010	587.000000
398.560237	581.000000
398.983430	579.000000
399.406589	585.000000
399.829716	582.000000
400.252808	567.000000
400.675867	592.000000
401.098893	591.000000
401.521885	588.000000
401.944844	577.000000
402.367769	590.000000
402.790661	583.000000
403.213519	570.000000
403.636344	580.000000
404.059135	590.000000
404.481893	573.000000
404.904618	579.000000
405.327308	580.000000
405.749966	558.000000
406.172590	586.000000
406.595180	572.000000
407.017737	583.000000
407.440261	584.000000
407.862751	573.000000
408.285208	584.000000
408.707631	574.000000
409.130021	584.000000
409.552377	593.000000
409.974700	587.000000
410.396990	578.000000
410.819246	578.000000
411.241469	587.000000
411.663658	592.000000
412.085814	585.000000
412.507936	581.000000
412.930025	557.000000
413.352080	581.000000
413.774102	563.000000
414.196091	558.000000
414.618046	577.000000
415.039968	580.000000
415.461857	557.000000
415.883712	587.000000
416.305533	580.000000
416.727321	587.000000
417.149076	588.000000
417.570798	583.000000
417.992486	591.000000
418.414140	577.000000
418.835762	576.000000
419.257349	578.000000
419.678904	579.000000
420.100425	588.000000
420.521913	574.000000
420.943367	579.000000
421.364788	579.000000
421.786175	582.000000
422.207530	577.000000
422.628850	589.000000
423.050138	579.000000
423.471392	567.000000
423.892613	600.000000
424.313800	578.000000
424.734954	587.000000
425.156075	588.000000
425.577162	583.000000
425.998216	587.000000
426.419237	568.000000
426.840224	581.000000
427.261178	573.000000
427.682098	585.000000
428.102986	583.000000
428.523840	569.000000
428.944660	602.000000
429.365447	579.000000
429.786201	584.000000
430.206922	587.000000
430.627609	590.000000
431.048263	583.000000
431.468884	598.000000
431.889471	572.000000
432.310025	557.000000
432.730546	582.000000
433.151033	598.000000
433.571487	582.000000
433.991908	590.000000
434.412295	572.000000
434.832649	582.000000
435.252970	575.000000
435.673258	585.000000
436.093512	571.000000
436.513733	570.000000
436.933921	563.000000
437.354075	580.000000
437.774196	575.000000
438.194284	566.000000
438.614339	579.000000
439.034360	575.000000
439.454348	594.000000
439.874303	585.000000
440.294224	566.000000
440.714112	587.000000
441.133967	605.000000
441.553789	583.000000
441.973577	565.000000
442.393332	600.000000
442.813054	570.000000
443.232743	592.000000
443.652398	582.000000
444.072020	588.000000
444.491609	591.000000
444.911165	581.000000
445.330687	577.000000
445.750176	579.000000
446.169632	591.000000
446.589055	580.000000
447.008444	570.000000
447.427801	590.000000
447.847124	559.000000
448.266413	573.000000
448.685670	575.000000
449.104893	588.000000
449.524083	598.000000
449.943240	579.000000
450.362364	575.000000
450.781454	589.000000
451.200512	579.000000
451.619536	606.000000
452.038526	585.000000
452.457484	568.000000
452.876408	596.000000
453.295300	583.000000
453.714158	589.000000
454.132983	586.000000
454.551774	600.000000
454.970533	584.000000
455.389258	587.000000
455.807950	579.000000
