wavelength:cm-1,532.143005
X	Y
60.775025	598.000000
61.224870	585.000000
61.674680	599.000000
62.124455	597.000000
62.574194	606.000000
63.023898	596.000000
63.473566	609.000000
63.923199	619.000000
64.372797	631.000000
64.822359	605.000000
65.271886	617.000000
65.721378	602.000000
66.170834	612.000000
66.620255	587.000000
67.069641	607.000000
67.518991	612.000000
67.968306	600.000000
68.417586	621.000000
68.866830	633.000000
69.316039	626.000000
69.765212	657.000000
70.214350	645.000000
70.663453	647.000000
71.112521	648.000000
71.561553	670.000000
72.010550	662.000000
72.459511	674.000000
72.908437	703.000000
73.357328	694.000000
73.806184	717.000000
74.255004	753.000000
74.703789	780.000000
75.152539	815.000000
75.601253	819.000000
76.049932	848.000000
76.498576	854.000000
76.947184	911.000000
77.395757	937.000000
77.844295	956.000000
78.292798	997.000000
78.741265	995.000000
79.189697	1010.000000
79.638094	1036.000000
80.086455	1011.000000
80.534781	1004.000000
80.983072	983.000000
81.431328	912.000000
81.879548	856.000000
82.327733	856.000000
82.775883	813.000000
83.223997	785.000000
83.672077	754.000000
84.120121	726.000000
84.568129	696.000000
85.016103	657.000000
85.464041	647.000000
85.911944	645.000000
86.359812	637.000000
86.807644	632.000000
87.255442	623.000000
87.703204	614.000000
88.150931	604.000000
88.598622	620.000000
89.046278	608.000000
89.493900	585.000000
89.941485	594.000000
90.389036	589.000000
90.836552	587.000000
91.284032	590.000000
91.731477	605.000000
92.178887	584.000000
92.626261	598.000000
93.073600	586.000000
93.520905	560.000000
93.968174	572.000000
94.415407	606.000000
94.862606	583.000000
95.309769	595.000000
95.756897	600.000000
96.203990	575.000000
96.651048	612.000000
97.098071	598.000000
97.545058	595.000000
97.992010	594.000000
98.438928	596.000000
98.885809	584.000000
99.332656	581.000000
99.779468	602.000000
100.226244	605.000000
100.672985	587.000000
101.119691	577.000000
101.566362	588.000000
102.012998	617.000000
102.459598	615.000000
102.906164	604.000000
103.352694	602.000000
103.799189	597.000000
104.245649	607.000000
104.692074	603.000000
105.138464	596.000000
105.584818	625.000000
106.031138	631.000000
106.477422	612.000000
106.923671	624.000000
107.369885	644.000000
107.816064	637.000000
108.262208	645.000000
108.708316	646.000000
109.154390	645.000000
109.600428	650.000000
110.046431	625.000000
110.492400	659.000000
110.938333	653.000000
111.384231	665.000000
111.830093	642.000000
112.275921	671.000000
112.721714	653.000000
113.167471	669.000000
113.613194	659.000000
114.058881	663.000000
114.504534	668.000000
114.950151	675.000000
115.395733	664.000000
115.841280	681.000000
116.286792	670.000000
116.732269	665.000000
117.177710	692.000000
117.623117	654.000000
118.068489	678.000000
118.513825	665.000000
118.959127	683.000000
119.404393	686.000000
119.849625	692.000000
120.294821	681.000000
120.739982	697.000000
121.185109	685.000000
121.630200	722.000000
122.075256	707.000000
122.520277	705.000000
122.965263	723.000000
123.410214	703.000000
123.855130	722.000000
124.300011	749.000000
124.744857	742.000000
125.189668	758.000000
125.634444	762.000000
126.079184	775.000000
126.523890	790.000000
126.968561	758.000000
127.413197	766.000000
127.857798	762.000000
128.302363	778.000000
128.746894	801.000000
129.191390	769.000000
129.635850	772.000000
130.080276	749.000000
130.524667	745.000000
130.969023	789.000000
131.413343	729.000000
131.857629	726.000000
132.301880	708.000000
132.746095	710.000000
133.190276	690.000000
133.634422	692.000000
134.078533	690.000000
134.522609	675.000000
134.966649	667.000000
135.410655	672.000000
135.854626	651.000000
136.298562	657.000000
136.742463	648.000000
137.186329	635.000000
137.630160	640.000000
138.073956	642.000000
138.517717	633.000000
138.961443	628.000000
139.405135	611.000000
139.848791	618.000000
140.292412	626.000000
140.735999	602.000000
141.179550	635.000000
141.623067	613.000000
142.066548	639.000000
142.509995	604.000000
142.953406	602.000000
143.396783	589.000000
143.840125	627.000000
144.283432	621.000000
144.726704	607.000000
145.169941	602.000000
145.613143	611.000000
146.056310	583.000000
146.499443	577.000000
146.942540	600.000000
147.385603	599.000000
147.828630	600.000000
148.271623	611.000000
148.714581	602.000000
149.157504	599.000000
149.600392	590.000000
150.043245	582.000000
150.486063	592.000000
150.928847	600.000000
151.371595	578.000000
151.814309	591.000000
152.256987	599.000000
152.699631	600.000000
153.142240	574.000000
153.584814	589.000000
154.027353	595.000000
154.469858	579.000000
154.912327	598.000000
155.354762	605.000000
155.797162	583.000000
156.239527	577.000000
156.681857	595.000000
157.124152	596.000000
157.566412	599.000000
158.008638	583.000000
158.450828	606.000000
158.892984	589.000000
159.335105	582.000000
159.777191	583.000000
160.219242	580.000000
160.661259	584.000000
161.103241	575.000000
161.545187	593.000000
161.987099	589.000000
162.428977	600.000000
162.870819	581.000000
163.312626	574.000000
163.754399	581.000000
164.196137	569.000000
164.637840	581.000000
165.079508	577.000000
165.521142	584.000000
165.962740	595.000000
166.404304	586.000000
166.845833	588.000000
167.287328	588.000000
167.728787	582.000000
168.170212	567.000000
168.611602	591.000000
169.052957	585.000000
169.494277	576.000000
169.935563	584.000000
170.376813	596.000000
170.818029	567.000000
171.259211	576.000000
171.700357	594.000000
172.141469	571.000000
172.582546	580.000000
173.023588	568.000000
173.464595	575.000000
173.905568	577.000000
174.346506	586.000000
174.787409	575.000000
175.228277	582.000000
175.669111	585.000000
176.109910	590.000000
176.550674	575.000000
176.991403	583.000000
177.432098	575.000000
177.872758	580.000000
178.313383	582.000000
178.753973	587.000000
179.194529	569.000000
179.635050	574.000000
180.075536	585.000000
180.515988	584.000000
180.956405	583.000000
181.396787	577.000000
181.837134	581.000000
182.277447	571.000000
182.717725	587.000000
183.157968	585.000000
183.598177	582.000000
184.038350	590.000000
184.478490	572.000000
184.918594	585.000000
185.358664	606.000000
185.798699	593.000000
186.238699	581.000000
186.678665	600.000000
187.118596	598.000000
187.558492	583.000000
187.998354	588.000000
188.438181	600.000000
188.877973	601.000000
189.317731	591.000000
189.757454	602.000000
190.197142	588.000000
190.636796	583.000000
191.076414	585.000000
191.515999	582.000000
191.955548	584.000000
192.395063	581.000000
192.834544	591.000000
193.273989	586.000000
193.713400	581.000000
194.152777	580.000000
194.592118	578.000000
195.031425	583.000000
195.470698	598.000000
195.909936	595.000000
196.349139	601.000000
196.788307	585.000000
197.227441	602.000000
197.666541	597.000000
198.105605	593.000000
198.544635	574.000000
198.983631	576.000000
199.422591	597.000000
199.861518	590.000000
200.300409	596.000000
200.739266	587.000000
201.178089	603.000000
201.616876	592.000000
202.055629	589.000000
202.494348	571.000000
202.933032	604.000000
203.371681	588.000000
203.810296	596.000000
204.248876	597.000000
204.687422	607.000000
205.125933	591.000000
205.564409	584.000000
206.002851	578.000000
206.441258	567.000000
206.879631	587.000000
207.317969	594.000000
207.756273	612.000000
208.194542	593.000000
208.632776	584.000000
209.070976	593.000000
209.509141	605.000000
209.947272	621.000000
210.385368	602.000000
210.823430	597.000000
211.261457	616.000000
211.699449	629.000000
212.137407	607.000000
212.575331	617.000000
213.013220	633.000000
213.451074	607.000000
213.888894	638.000000
214.326679	604.000000
214.764430	647.000000
215.202146	663.000000
215.639828	648.000000
216.077475	659.000000
216.515087	656.000000
216.952666	675.000000
217.390209	676.000000
217.827718	700.000000
218.265193	696.000000
218.702633	704.000000
219.140038	720.000000
219.577410	717.000000
220.014746	716.000000
220.452048	732.000000
220.889316	719.000000
221.326549	745.000000
221.763747	725.000000
222.200911	792.000000
222.638041	757.000000
223.075136	748.000000
223.512197	770.000000
223.949223	733.000000
224.386215	740.000000
224.823172	751.000000
225.260094	758.000000
225.696983	740.000000
226.133836	766.000000
226.570656	752.000000
227.007441	732.000000
227.444191	721.000000
227.880907	706.000000
228.317588	715.000000
228.754235	682.000000
229.190848	680.000000
229.627426	660.000000
230.063970	669.000000
230.500479	629.000000
230.936954	679.000000
231.373394	664.000000
231.809800	663.000000
232.246172	641.000000
232.682509	638.000000
233.118811	627.000000
233.555080	637.000000
233.991313	627.000000
234.427513	627.000000
234.863678	616.000000
235.299808	632.000000
235.735904	633.000000
236.171966	636.000000
236.607993	648.000000
237.043986	641.000000
237.479944	661.000000
237.915869	657.000000
238.351758	672.000000
238.787613	679.000000
239.223434	693.000000
239.659221	713.000000
240.094973	713.000000
240.530691	712.000000
240.966374	746.000000
241.402023	768.000000
241.837637	801.000000
242.273218	817.000000
242.708763	840.000000
243.144275	851.000000
243.579752	900.000000
244.015195	954.000000
244.450603	1021.000000
244.885977	1052.000000
245.321316	1100.000000
245.756622	1148.000000
246.191893	1188.000000
246.627129	1303.000000
247.062331	1356.000000
247.497499	1365.000000
247.932633	1391.000000
248.367732	1490.000000
248.802796	1497.000000
249.237827	1491.000000
249.672823	1508.000000
250.107785	1477.000000
250.542712	1407.000000
250.977605	1417.000000
251.412464	1399.000000
251.847289	1326.000000
252.282079	1288.000000
252.716835	1200.000000
253.151556	1168.000000
253.586243	1082.000000
254.020896	1012.000000
254.455515	1015.000000
254.890099	941.000000
255.324649	934.000000
255.759165	880.000000
256.193646	862.000000
256.628093	825.000000
257.062506	818.000000
257.496884	803.000000
257.931229	805.000000
258.365538	751.000000
258.799814	758.000000
259.234055	760.000000
259.668262	760.000000
260.102435	771.000000
260.536574	748.000000
260.970678	756.000000
261.404748	771.000000
261.838783	770.000000
262.272785	760.000000
262.706752	744.000000
263.140685	739.000000
263.574584	764.000000
264.008448	779.000000
264.442278	783.000000
264.876074	785.000000
265.309835	792.000000
265.743563	807.000000
266.177256	825.000000
266.610915	847.000000
267.044539	846.000000
267.478130	867.000000
267.911686	933.000000
268.345208	919.000000
268.778696	969.000000
269.212149	944.000000
269.645568	1042.000000
270.078953	1035.000000
270.512304	1038.000000
270.945621	1081.000000
271.378903	1108.000000
271.812151	1157.000000
272.245365	1095.000000
272.678545	1182.000000
273.111690	1145.000000
273.544802	1186.000000
273.977879	1160.000000
274.410922	1126.000000
274.843931	1154.000000
275.276905	1108.000000
275.709845	1107.000000
276.142752	1089.000000
276.575624	1014.000000
277.008461	1030.000000
277.441265	956.000000
277.874034	928.000000
278.306770	908.000000
278.739471	895.000000
279.172138	852.000000
279.604770	827.000000
280.037369	853.000000
280.469933	797.000000
280.902464	763.000000
281.334960	759.000000
281.767422	747.000000
282.199849	755.000000
282.632243	727.000000
283.064602	711.000000
283.496928	687.000000
283.929219	703.000000
284.361476	707.000000
284.793699	686.000000
285.225888	674.000000
285.658042	695.000000
286.090163	660.000000
286.522249	683.000000
286.954301	664.000000
287.386319	659.000000
287.818303	655.000000
288.250253	660.000000
288.682169	658.000000
289.114050	644.000000
289.545898	661.000000
289.977711	650.000000
290.409491	629.000000
290.841236	638.000000
291.272947	622.000000
291.704624	639.000000
292.136267	624.000000
292.567875	635.000000
292.999450	655.000000
293.430991	631.000000
293.862497	628.000000
294.293969	637.000000
294.725408	627.000000
295.156812	601.000000
295.588182	620.000000
296.019518	621.000000
296.450820	605.000000
296.882088	622.000000
297.313322	600.000000
297.744522	617.000000
298.175687	614.000000
298.606819	603.000000
299.037917	626.000000
299.468980	607.000000
299.900010	617.000000
300.331005	600.000000
300.761966	620.000000
301.192894	627.000000
301.623787	614.000000
302.054646	629.000000
302.485471	616.000000
302.916263	604.000000
303.347020	603.000000
303.777743	599.000000
304.208432	619.000000
304.639087	625.000000
305.069708	596.000000
305.500295	604.000000
305.930848	590.000000
306.361367	602.000000
306.791852	596.000000
307.222302	599.000000
307.652719	584.000000
308.083102	610.000000
308.513451	590.000000
308.943766	602.000000
309.374047	587.000000
309.804294	588.000000
310.234506	561.000000
310.664685	589.000000
311.094830	584.000000
311.524941	594.000000
311.955018	574.000000
312.385061	589.000000
312.815070	592.000000
313.245045	579.000000
313.674986	588.000000
314.104892	580.000000
314.534765	589.000000
314.964604	592.000000
315.394410	581.000000
315.824181	580.000000
316.253918	583.000000
316.683621	576.000000
317.113290	585.000000
317.542925	584.000000
317.972527	591.000000
318.402094	577.000000
318.831627	590.000000
319.261127	577.000000
319.690592	577.000000
320.120024	575.000000
320.549421	571.000000
320.978785	588.000000
321.408115	572.000000
321.837411	572.000000
322.266672	580.000000
322.695900	595.000000
323.125094	584.000000
323.554254	589.000000
323.983381	581.000000
324.412473	577.000000
324.841531	594.000000
325.270556	582.000000
325.699546	582.000000
326.128503	571.000000
326.557425	562.000000
326.986314	556.000000
327.415169	574.000000
327.843990	583.000000
328.272777	576.000000
328.701530	579.000000
329.130249	559.000000
329.558935	588.000000
329.987586	571.000000
330.416204	570.000000
330.844788	578.000000
331.273337	598.000000
331.701853	578.000000
332.130336	570.000000
332.558784	586.000000
332.987198	580.000000
333.415579	586.000000
333.843925	554.000000
334.272238	563.000000
334.700517	583.000000
335.128762	576.000000
335.556973	585.000000
335.985150	580.000000
336.413294	563.000000
336.841404	579.000000
337.269479	579.000000
337.697521	572.000000
338.125529	580.000000
338.553504	590.000000
338.981444	572.000000
339.409351	587.000000
339.837223	571.000000
340.265062	576.000000
340.692867	591.000000
341.120638	573.000000
341.548376	585.000000
341.976080	589.000000
342.403749	555.000000
342.831385	588.000000
343.258987	567.000000
343.686556	574.000000
344.114090	598.000000
344.541591	592.000000
344.969058	577.000000
345.396491	597.000000
345.823890	571.000000
346.251256	591.000000
346.678588	592.000000
347.105886	591.000000
347.533150	585.000000
347.960380	573.000000
348.387577	579.000000
348.814740	580.000000
349.241869	577.000000
349.668964	596.000000
350.096025	576.000000
350.523053	592.000000
350.950047	578.000000
351.377007	577.000000
351.803933	576.000000
352.230826	605.000000
352.657685	580.000000
353.084510	591.000000
353.511301	587.000000
353.938059	585.000000
354.364783	597.000000
354.791473	586.000000
355.218129	592.000000
355.644752	599.000000
356.071341	603.000000
356.497896	596.000000
356.924417	605.000000
357.350905	600.000000
357.777359	597.000000
358.203779	592.000000
358.630165	593.000000
359.056518	603.000000
359.482837	602.000000
359.909122	603.000000
360.335374	598.000000
360.761592	601.000000
361.187776	610.000000
361.613926	611.000000
362.040043	595.000000
362.466126	620.000000
362.892175	585.000000
363.318191	612.000000
363.744173	591.000000
364.170121	600.000000
364.596035	633.000000
365.021916	599.000000
365.447763	629.000000
365.873577	604.000000
366.299357	644.000000
366.725103	621.000000
367.150815	652.000000
367.576494	638.000000
368.002139	634.000000
368.427750	658.000000
368.853328	641.000000
369.278872	703.000000
369.704382	686.000000
370.129859	680.000000
370.555302	694.000000
370.980711	680.000000
371.406087	733.000000
371.831429	740.000000
372.256737	778.000000
372.682012	810.000000
373.107253	842.000000
373.532461	872.000000
373.957635	924.000000
374.382775	898.000000
374.807881	1003.000000
375.232954	1058.000000
375.657994	1077.000000
376.082999	1184.000000
376.507971	1207.000000
376.932910	1254.000000
377.357814	1300.000000
377.782686	1379.000000
378.207523	1393.000000
378.632327	1410.000000
379.057097	1375.000000
379.481834	1339.000000
379.906537	1357.000000
380.331207	1342.000000
380.755843	1297.000000
381.180445	1205.000000
381.605014	1140.000000
382.029549	1100.000000
382.454050	1014.000000
382.878518	950.000000
383.302952	913.000000
383.727353	882.000000
384.151720	834.000000
384.576054	776.000000
385.000354	743.000000
385.424620	752.000000
385.848853	728.000000
386.273052	688.000000
386.697218	667.000000
387.121350	667.000000
387.545448	659.000000
387.969513	660.000000
388.393545	628.000000
388.817543	625.000000
389.241507	604.000000
389.665438	616.000000
390.089335	614.000000
390.513199	598.000000
390.937029	606.000000
391.360825	596.000000
391.784588	590.000000
392.208318	596.000000
392.632014	582.000000
393.055676	593.000000
393.479305	602.000000
393.902900	613.000000
394.326462	601.000000
394.749990	603.000000
395.173485	595.000000
395.596946	603.000000
396.020374	572.000000
396.443768	570.000000
396.867129	582.000000
397.290456	566.000000
397.713750	598.000000
398.137010	588.000000
398.560237	594.000000
398.983430	593.000000
399.406589	579.000000
399.829716	581.000000
400.252808	575.000000
400.675867	579.000000
401.098893	571.000000
401.521885	606.000000
401.944844	571.000000
402.367769	571.000000
402.790661	586.000000
403.213519	598.000000
403.636344	572.000000
404.059135	568.000000
404.481893	574.000000
404.904618	587.000000
405.327308	566.000000
405.749966	574.000000
406.172590	579.000000
406.595180	588.000000
407.017737	567.000000
407.440261	581.000000
407.862751	569.000000
408.285208	578.000000
408.707631	595.000000
409.130021	593.000000
409.552377	579.000000
409.974700	589.000000
410.396990	582.000000
410.819246	577.000000
411.241469	589.000000
411.663658	574.000000
412.085814	568.000000
412.507936	586.000000
412.930025	588.000000
413.352080	583.000000
413.774102	560.000000
414.196091	582.000000
414.618046	581.000000
415.039968	589.000000
415.461857	564.000000
415.883712	572.000000
416.305533	568.000000
416.727321	574.000000
417.149076	590.000000
417.570798	597.000000
417.992486	567.000000
418.414140	577.000000
418.835762	574.000000
419.257349	562.000000
419.678904	560.000000
420.100425	583.000000
420.521913	580.000000
420.943367	572.000000
421.364788	563.000000
421.786175	581.000000
422.207530	583.000000
422.628850	576.000000
423.050138	576.000000
423.471392	571.000000
423.892613	585.000000
424.313800	571.000000
424.734954	562.000000
425.156075	566.000000
425.577162	584.000000
425.998216	583.000000
426.419237	572.000000
426.840224	584.000000
427.261178	579.000000
427.682098	580.000000
428.102986	576.000000
428.523840	575.000000
428.944660	577.000000
429.365447	593.000000
429.786201	564.000000
430.206922	581.000000
430.627609	580.000000
431.048263	588.000000
431.468884	574.000000
431.889471	578.000000
432.310025	580.000000
432.730546	554.000000
433.151033	577.000000
433.571487	584.000000
433.991908	583.000000
434.412295	573.000000
434.832649	576.000000
435.252970	581.000000
435.673258	577.000000
436.093512	569.000000
436.513733	593.000000
436.933921	557.000000
437.354075	589.000000
437.774196	575.000000
438.194284	591.000000
438.614339	578.000000
439.034360	581.000000
439.454348	566.000000
439.874303	580.000000
440.294224	568.000000
440.714112	591.000000
441.133967	577.000000
441.553789	581.000000
441.973577	587.000000
442.393332	562.000000
442.813054	558.000000
443.232743	575.000000
443.652398	559.000000
444.072020	569.000000
444.491609	586.000000
444.911165	582.000000
445.330687	577.000000
445.750176	589.000000
446.169632	566.000000
446.589055	585.000000
447.008444	557.000000
447.427801	590.000000
447.847124	575.000000
448.266413	582.000000
448.685670	572.000000
449.104893	568.000000
449.524083	573.000000
449.943240	573.000000
450.362364	564.000000
450.781454	584.000000
451.200512	575.000000
451.619536	585.000000
452.038526	566.000000
452.457484	583.000000
452.876408	577.000000
453.295300	579.000000
453.714158	591.000000
454.132983	575.000000
454.551774	580.000000
